%W[nm]    S[counts]
474.58600000  -5.00000000
474.84800000  -7.25000000
475.11100000  -2.25000000
475.37400000   4.00000000
475.63700000   0.00000000
475.89900000   5.50000000
476.16200000   5.75000000
476.42500000  -1.50000000
476.68700000   1.00000000
476.95000000   5.75000000
477.21300000  -2.75000000
477.47500000  -1.25000000
477.73800000   3.25000000
478.00100000   0.75000000
478.26300000   2.50000000
478.52600000   5.50000000
478.78900000   3.25000000
479.05200000  -0.25000000
479.31400000  -1.75000000
479.57700000  -0.25000000
479.84000000   3.00000000
480.10200000   0.50000000
480.36500000  -5.00000000
480.62800000  -2.50000000
480.89000000  -1.50000000
481.15300000   2.00000000
481.41600000   0.50000000
481.67800000  -3.75000000
481.94100000  -1.25000000
482.20400000  -2.25000000
482.46600000   4.25000000
482.72900000   1.75000000
482.99100000  -3.25000000
483.25400000   2.50000000
483.51700000  -3.50000000
483.77900000   1.75000000
484.04200000  -1.00000000
484.30500000   6.50000000
484.56700000   2.75000000
484.83000000  -3.75000000
485.09300000   0.50000000
485.35500000   6.50000000
485.61800000   1.00000000
485.88000000  -3.25000000
486.14300000   0.50000000
486.40600000  -5.75000000
486.66800000  -1.00000000
486.93100000   5.25000000
487.19400000   3.75000000
487.45600000   2.00000000
487.71900000   0.75000000
487.98100000  -1.00000000
488.24400000  -2.25000000
488.50700000   2.25000000
488.76900000   0.25000000
489.03200000   5.00000000
489.29400000   2.50000000
489.55700000   0.50000000
489.82000000  -6.25000000
490.08200000  -1.75000000
490.34500000   1.00000000
490.60700000   3.75000000
490.87000000   3.25000000
491.13200000   2.50000000
491.39500000  -3.25000000
491.65800000   5.00000000
491.92000000   2.75000000
492.18300000  -1.25000000
492.44500000   1.00000000
492.70800000   2.00000000
492.97100000   2.00000000
493.23300000   3.00000000
493.49600000   5.50000000
493.75800000   1.00000000
494.02100000   0.00000000
494.28300000   3.50000000
494.54600000   4.75000000
494.80800000   4.75000000
495.07100000  -0.75000000
495.33400000   0.75000000
495.59600000  -2.75000000
495.85900000   3.75000000
496.12100000   1.25000000
496.38400000   4.50000000
496.64600000   3.25000000
496.90900000   7.25000000
497.17100000  -3.50000000
497.43400000  -2.25000000
497.69600000   1.75000000
497.95900000   0.50000000
498.22100000   6.25000000
498.48400000   5.25000000
498.74600000  -1.25000000
499.00900000   1.50000000
499.27100000  -1.50000000
499.53400000  -0.75000000
499.79700000   1.00000000
500.05900000  -2.25000000
500.32200000   1.75000000
500.58400000   1.50000000
500.84700000   7.50000000
501.10900000   3.75000000
501.37200000   1.50000000
501.63400000   4.25000000
501.89700000   5.25000000
502.15900000   1.75000000
502.42200000   2.50000000
502.68400000   3.00000000
502.94700000   4.00000000
503.20900000   1.00000000
503.47100000   4.25000000
503.73400000  -2.00000000
503.99600000  -0.50000000
504.25900000   2.25000000
504.52100000   5.50000000
504.78400000   2.75000000
505.04600000   2.75000000
505.30900000   1.50000000
505.57100000   1.25000000
505.83400000   0.50000000
506.09600000   1.75000000
506.35900000   1.50000000
506.62100000   2.25000000
506.88400000   0.75000000
507.14600000   2.75000000
507.40800000   0.75000000
507.67100000   4.00000000
507.93300000   0.75000000
508.19600000   6.00000000
508.45800000  -1.75000000
508.72100000  -1.00000000
508.98300000   1.00000000
509.24600000  -2.00000000
509.50800000  -2.50000000
509.77000000   5.50000000
510.03300000  10.00000000
510.29500000  -1.75000000
510.55800000   5.00000000
510.82000000   4.00000000
511.08300000   2.00000000
511.34500000   3.00000000
511.60700000   7.00000000
511.87000000   4.50000000
512.13200000  -3.25000000
512.39500000   0.50000000
512.65700000   1.25000000
512.91900000  -1.25000000
513.18200000   2.50000000
513.44400000   0.50000000
513.70700000   1.75000000
513.96900000  -8.00000000
514.23100000   2.00000000
514.49400000   3.25000000
514.75600000   4.75000000
515.01900000   1.25000000
515.28100000  -0.75000000
515.54300000   1.00000000
515.80600000   6.75000000
516.06800000   1.25000000
516.33100000   3.50000000
516.59300000   1.50000000
516.85500000   1.50000000
517.11800000   3.00000000
517.38000000  -1.75000000
517.64200000  -1.25000000
517.90500000   2.00000000
518.16700000   7.00000000
518.43000000   3.50000000
518.69200000  -0.75000000
518.95400000  -2.25000000
519.21700000   1.75000000
519.47900000   4.25000000
519.74100000   0.25000000
520.00400000  -1.25000000
520.26600000   5.00000000
520.52800000   4.75000000
520.79100000   1.75000000
521.05300000   0.00000000
521.31500000  -2.00000000
521.57800000  -3.00000000
521.84000000   7.25000000
522.10200000  -0.25000000
522.36500000   2.25000000
522.62700000  -0.25000000
522.88900000  -0.25000000
523.15200000   1.00000000
523.41400000  -2.00000000
523.67600000   3.75000000
523.93900000  -2.00000000
524.20100000  -2.75000000
524.46300000   6.25000000
524.72600000  -0.75000000
524.98800000  -0.75000000
525.25000000  -0.25000000
525.51300000   0.00000000
525.77500000  -4.00000000
526.03700000   2.00000000
526.29900000   2.50000000
526.56200000   5.50000000
526.82400000   3.75000000
527.08600000   1.00000000
527.34900000   0.25000000
527.61100000   2.25000000
527.87300000  -1.00000000
528.13500000   3.25000000
528.39800000   3.00000000
528.66000000  -1.00000000
528.92200000   2.50000000
529.18500000  -0.75000000
529.44700000  -1.00000000
529.70900000  -0.25000000
529.97100000  -4.25000000
530.23400000   6.75000000
530.49600000   1.75000000
530.75800000   2.00000000
531.02000000  -2.25000000
531.28300000   2.75000000
531.54500000   6.25000000
531.80700000  -2.00000000
532.06900000   7.75000000
532.33200000   1.75000000
532.59400000   5.75000000
532.85600000  -1.00000000
533.11800000   2.25000000
533.38100000   1.25000000
533.64300000  -0.75000000
533.90500000   0.75000000
534.16700000   5.50000000
534.43000000  -0.25000000
534.69200000   6.00000000
534.95400000   3.25000000
535.21600000   4.00000000
535.47900000   6.25000000
535.74100000   5.50000000
536.00300000   4.75000000
536.26500000   1.75000000
536.52700000   2.00000000
536.79000000   3.00000000
537.05200000   4.25000000
537.31400000   4.75000000
537.57600000   3.75000000
537.83900000   0.50000000
538.10100000   2.75000000
538.36300000   2.50000000
538.62500000   6.00000000
538.88700000   0.75000000
539.15000000   5.50000000
539.41200000  -3.00000000
539.67400000  -0.25000000
539.93600000   0.50000000
540.19800000  -0.75000000
540.46000000   2.00000000
540.72300000   3.25000000
540.98500000  -2.75000000
541.24700000   3.00000000
541.50900000   2.00000000
541.77100000   3.00000000
542.03400000   3.50000000
542.29600000  -0.75000000
542.55800000  -1.25000000
542.82000000   1.25000000
543.08200000   8.50000000
543.34400000   1.25000000
543.60700000   0.25000000
543.86900000  -0.50000000
544.13100000   1.00000000
544.39300000   6.00000000
544.65500000   6.75000000
544.91700000   3.50000000
545.17900000   2.50000000
545.44200000   2.00000000
545.70400000   5.50000000
545.96600000   3.25000000
546.22800000   5.25000000
546.49000000   5.00000000
546.75200000   2.00000000
547.01400000   9.75000000
547.27700000   7.00000000
547.53900000   3.25000000
547.80100000   1.50000000
548.06300000   5.50000000
548.32500000   8.75000000
548.58700000   3.50000000
548.84900000   3.75000000
549.11100000   0.50000000
549.37400000   5.50000000
549.63600000   7.25000000
549.89800000   0.75000000
550.16000000   8.25000000
550.42200000   9.00000000
550.68400000   4.25000000
550.94600000   5.75000000
551.20800000   5.25000000
551.47000000   9.25000000
551.73200000   8.75000000
551.99500000  10.25000000
552.25700000  10.75000000
552.51900000   7.50000000
552.78100000  13.75000000
553.04300000   8.75000000
553.30500000   5.00000000
553.56700000   7.25000000
553.82900000  15.50000000
554.09100000   8.75000000
554.35300000   9.50000000
554.61500000  15.75000000
554.87700000  10.25000000
555.13900000  14.75000000
555.40200000  13.25000000
555.66400000  10.50000000
555.92600000  17.75000000
556.18800000  20.00000000
556.45000000  18.00000000
556.71200000  22.50000000
556.97400000  21.00000000
557.23600000  25.25000000
557.49800000  25.00000000
557.76000000  20.00000000
558.02200000  29.50000000
558.28400000  23.75000000
558.54600000  31.25000000
558.80800000  30.75000000
559.07000000  36.50000000
559.33200000  22.00000000
559.59400000  31.00000000
559.85600000  30.25000000
560.11800000  35.25000000
560.38000000  33.75000000
560.64200000  36.50000000
560.90400000  49.25000000
561.16600000  46.00000000
561.42800000  49.50000000
561.69000000  47.00000000
561.95300000  48.00000000
562.21500000  51.50000000
562.47700000  56.00000000
562.73900000  60.50000000
563.00100000  57.25000000
563.26300000  56.50000000
563.52500000  63.25000000
563.78700000  63.50000000
564.04900000  55.50000000
564.31100000  67.25000000
564.57300000  64.25000000
564.83500000  71.75000000
565.09600000  78.00000000
565.35800000  73.00000000
565.62000000  72.50000000
565.88200000  84.00000000
566.14400000  77.75000000
566.40600000  89.00000000
566.66800000  82.00000000
566.93000000  83.75000000
567.19200000  82.50000000
567.45400000  76.75000000
567.71600000  72.75000000
567.97800000  77.50000000
568.24000000  89.25000000
568.50200000  89.75000000
568.76400000  90.75000000
569.02600000  90.75000000
569.28800000  85.25000000
569.55000000  82.25000000
569.81200000  74.25000000
570.07400000  96.50000000
570.33600000  79.50000000
570.59800000  78.75000000
570.86000000 111.75000000
571.12200000  59.50000000
571.38400000  81.00000000
571.64500000  83.50000000
571.90700000  78.50000000
572.16900000  81.50000000
572.43100000  86.50000000
572.69300000  84.25000000
572.95500000  90.00000000
573.21700000  87.75000000
573.47900000  85.75000000
573.74100000  51.00000000
574.00300000  79.50000000
574.26500000  85.50000000
574.52700000  78.00000000
574.78900000  90.25000000
575.05000000  79.75000000
575.31200000  98.75000000
575.57400000  84.75000000
575.83600000  90.75000000
576.09800000  90.50000000
576.36000000  93.75000000
576.62200000  80.75000000
576.88400000 102.00000000
577.14600000  89.50000000
577.40800000  90.00000000
577.66900000  89.00000000
577.93100000  89.50000000
578.19300000  97.25000000
578.45500000  97.75000000
578.71700000  86.25000000
578.97900000  97.25000000
579.24100000  69.50000000
579.50300000  92.50000000
579.76400000  85.00000000
580.02600000  93.25000000
580.28800000  87.25000000
580.55000000  90.00000000
580.81200000  87.25000000
581.07400000  91.00000000
581.33600000  85.00000000
581.59700000  78.25000000
581.85900000 102.00000000
582.12100000  91.75000000
582.38300000  87.50000000
582.64500000 101.25000000
582.90700000  99.25000000
583.16900000  82.50000000
583.43000000  85.00000000
583.69200000  86.75000000
583.95400000  81.50000000
584.21600000  80.50000000
584.47800000  70.75000000
584.74000000  82.25000000
585.00100000  86.75000000
585.26300000  92.00000000
585.52500000  80.25000000
585.78700000  84.00000000
586.04900000  93.25000000
586.31000000  89.50000000
586.57200000  88.25000000
586.83400000  90.25000000
587.09600000  90.75000000
587.35800000  98.00000000
587.62000000  81.75000000
587.88100000 102.50000000
588.14300000  89.00000000
588.40500000  88.00000000
588.66700000  80.50000000
588.92900000  73.50000000
589.19000000  84.75000000
589.45200000  95.75000000
589.71400000  91.75000000
589.97600000  90.75000000
590.23700000  98.50000000
590.49900000  94.25000000
590.76100000  96.25000000
591.02300000  93.75000000
591.28500000  88.25000000
591.54600000  89.50000000
591.80800000  92.50000000
592.07000000  96.75000000
592.33200000  88.25000000
592.59300000 109.50000000
592.85500000 100.50000000
593.11700000  95.25000000
593.37900000  96.00000000
593.64000000  99.25000000
593.90200000  87.75000000
594.16400000  89.25000000
594.42600000  98.00000000
594.68700000  90.75000000
594.94900000  99.50000000
595.21100000  83.25000000
595.47300000 100.75000000
595.73400000  93.00000000
595.99600000  96.00000000
596.25800000  90.75000000
596.52000000  84.75000000
596.78100000  94.25000000
597.04300000  90.75000000
597.30500000 103.25000000
597.56700000  98.50000000
597.82800000  99.75000000
598.09000000  94.00000000
598.35200000 101.75000000
598.61300000 111.00000000
598.87500000 102.00000000
599.13700000  95.50000000
599.39900000  88.25000000
599.66000000  92.00000000
599.92200000  92.00000000
600.18400000  88.75000000
600.44500000 108.50000000
600.70700000 102.25000000
600.96900000  96.50000000
601.23100000 106.00000000
601.49200000  93.25000000
601.75400000 108.50000000
602.01600000 108.50000000
602.27700000  94.75000000
602.53900000  97.50000000
602.80100000 104.50000000
603.06200000 100.25000000
603.32400000  93.50000000
603.58600000  79.75000000
603.84700000 101.00000000
604.10900000 127.00000000
604.37100000 109.75000000
604.63200000 113.50000000
604.89400000 106.00000000
605.15600000 118.50000000
605.41700000 106.75000000
605.67900000 111.50000000
605.94100000 100.75000000
606.20200000 100.75000000
606.46400000 104.00000000
606.72600000 114.00000000
606.98700000 107.50000000
607.24900000 118.50000000
607.51100000 108.50000000
607.77200000  93.50000000
608.03400000 115.00000000
608.29600000 111.50000000
608.55700000 124.75000000
608.81900000 114.00000000
609.08000000 114.25000000
609.34200000 107.75000000
609.60400000 123.25000000
609.86500000 112.50000000
610.12700000 112.50000000
610.38900000 112.75000000
610.65000000 120.50000000
610.91200000 107.00000000
611.17300000 123.00000000
611.43500000 119.50000000
611.69700000 117.25000000
611.95800000 112.75000000
612.22000000 114.25000000
612.48100000 118.50000000
612.74300000 135.25000000
613.00500000 119.75000000
613.26600000 123.00000000
613.52800000 122.00000000
613.78900000 120.00000000
614.05100000 126.75000000
614.31300000 142.00000000
614.57400000 126.50000000
614.83600000 130.50000000
615.09700000 127.50000000
615.35900000 111.75000000
615.62100000 139.00000000
615.88200000 129.75000000
616.14400000 125.25000000
616.40500000 128.25000000
616.66700000 129.75000000
616.92800000 138.00000000
617.19000000 129.75000000
617.45200000 137.75000000
617.71300000 126.50000000
617.97500000 141.25000000
618.23600000 139.00000000
618.49800000 139.25000000
618.75900000 149.75000000
619.02100000 144.25000000
619.28200000 156.00000000
619.54400000 132.00000000
619.80600000 133.75000000
620.06700000 131.50000000
620.32900000 137.50000000
620.59000000 137.25000000
620.85200000 133.75000000
621.11300000 140.00000000
621.37500000 141.25000000
621.63600000 145.75000000
621.89800000 130.50000000
622.15900000 156.25000000
622.42100000 146.75000000
622.68200000 132.75000000
622.94400000 135.75000000
623.20500000 150.50000000
623.46700000 163.50000000
623.72900000 141.50000000
623.99000000 162.00000000
624.25200000 147.00000000
624.51300000 147.50000000
624.77500000 161.75000000
625.03600000 160.25000000
625.29800000 162.50000000
625.55900000 159.50000000
625.82100000 142.75000000
626.08200000 154.75000000
626.34400000 156.50000000
626.60500000 159.75000000
626.86700000 160.25000000
627.12800000 164.75000000
627.38900000 162.25000000
627.65100000 165.00000000
627.91200000 166.25000000
628.17400000 160.00000000
628.43500000 169.50000000
628.69700000 160.75000000
628.95800000 175.25000000
629.22000000 172.00000000
629.48100000 165.25000000
629.74300000 169.00000000
630.00400000 167.00000000
630.26600000 183.00000000
630.52700000 181.25000000
630.78900000 177.50000000
631.05000000 170.25000000
631.31200000 176.75000000
631.57300000 180.50000000
631.83400000 203.50000000
632.09600000 202.50000000
632.35700000 196.75000000
632.61900000 180.50000000
632.88000000 196.00000000
633.14200000 191.25000000
633.40300000 200.00000000
633.66500000 211.25000000
633.92600000 205.00000000
634.18700000 197.00000000
634.44900000 196.00000000
634.71000000 212.75000000
634.97200000 213.00000000
635.23300000 218.00000000
635.49400000 205.75000000
635.75600000 220.25000000
636.01700000 215.75000000
636.27900000 214.50000000
636.54000000 205.75000000
636.80200000 216.25000000
637.06300000 225.50000000
637.32400000 212.75000000
637.58600000 236.25000000
637.84700000 230.00000000
638.10900000 204.00000000
638.37000000 205.25000000
638.63100000 216.00000000
638.89300000 209.75000000
639.15400000 234.50000000
639.41600000 223.75000000
639.67700000 231.00000000
639.93800000 231.00000000
640.20000000 233.25000000
640.46100000 231.50000000
640.72200000 217.50000000
640.98400000 235.00000000
641.24500000 242.75000000
641.50700000 232.75000000
641.76800000 244.50000000
642.02900000 249.00000000
642.29100000 251.25000000
642.55200000 239.50000000
642.81300000 259.00000000
643.07500000 269.25000000
643.33600000 243.25000000
643.59700000 267.00000000
643.85900000 274.75000000
644.12000000 276.25000000
644.38200000 292.25000000
644.64300000 273.75000000
644.90400000 259.75000000
645.16600000 290.25000000
645.42700000 275.00000000
645.68800000 278.75000000
645.95000000 295.00000000
646.21100000 270.25000000
646.47200000 288.25000000
646.73400000 276.00000000
646.99500000 286.50000000
647.25600000 276.50000000
647.51800000 286.75000000
647.77900000 303.50000000
648.04000000 303.00000000
648.30100000 312.25000000
648.56300000 281.25000000
648.82400000 314.25000000
649.08500000 315.50000000
649.34700000 332.50000000
649.60800000 344.00000000
649.86900000 359.50000000
650.13100000 352.00000000
650.39200000 348.00000000
650.65300000 373.50000000
650.91500000 369.75000000
651.17600000 354.50000000
651.43700000 356.75000000
651.69800000 337.25000000
651.96000000 360.50000000
652.22100000 330.50000000
652.48200000 366.75000000
652.74400000 373.50000000
653.00500000 379.75000000
653.26600000 377.50000000
653.52700000 396.25000000
653.78900000 414.75000000
654.05000000 399.50000000
654.31100000 377.25000000
654.57200000 393.75000000
654.83400000 379.25000000
655.09500000 396.75000000
655.35600000 416.25000000
655.61800000 402.50000000
655.87900000 418.25000000
656.14000000 417.25000000
656.40100000 414.50000000
656.66300000 398.75000000
656.92400000 443.75000000
657.18500000 426.25000000
657.44600000 443.00000000
657.70700000 447.50000000
657.96900000 425.75000000
658.23000000 424.50000000
658.49100000 439.25000000
658.75200000 428.25000000
659.01400000 455.75000000
659.27500000 462.75000000
659.53600000 452.75000000
659.79700000 461.25000000
660.05900000 475.00000000
660.32000000 463.25000000
660.58100000 481.25000000
660.84200000 483.00000000
661.10300000 473.25000000
661.36500000 496.25000000
661.62600000 501.75000000
661.88700000 487.75000000
662.14800000 495.50000000
662.40900000 500.50000000
662.67100000 504.00000000
662.93200000 525.25000000
663.19300000 513.50000000
663.45400000 503.25000000
663.71500000 503.75000000
663.97700000 446.25000000
664.23800000 536.00000000
664.49900000 549.25000000
664.76000000 519.00000000
665.02100000 548.75000000
665.28300000 575.75000000
665.54400000 574.00000000
665.80500000 574.00000000
666.06600000 571.50000000
666.32700000 620.25000000
666.58800000 584.50000000
666.85000000 593.25000000
667.11100000 595.50000000
667.37200000 603.25000000
667.63300000 605.50000000
667.89400000 587.50000000
668.15500000 617.00000000
668.41700000 590.75000000
668.67800000 614.50000000
668.93900000 619.00000000
669.20000000 630.00000000
669.46100000 624.00000000
669.72200000 660.50000000
669.98300000 648.00000000
670.24500000 651.50000000
670.50600000 638.25000000
670.76700000 666.25000000
671.02800000 667.75000000
671.28900000 663.50000000
671.55000000 703.25000000
671.81100000 690.00000000
672.07200000 712.50000000
672.33400000 693.50000000
672.59500000 689.00000000
672.85600000 712.25000000
673.11700000 729.00000000
673.37800000 723.25000000
673.63900000 698.75000000
673.90000000 752.50000000
674.16100000 729.00000000
674.42300000 701.00000000
674.68400000 725.25000000
674.94500000 713.75000000
675.20600000 696.75000000
675.46700000 723.50000000
